# P(k)  H0=0.7 Om0=0.3 Ob0=0.05 Ol0=0.7 Sigma8=0.8154 n_s=0.96
# k  P(k)  P_noOsc(k) 
    0.000499       8594.83       8536.66
    0.000998         16376         16266
    0.001497       23489.4       23347.2
    0.001996       29943.3       29795.3
    0.002495         35765       35638.1
    0.002994       40994.2       40911.8
    0.003493       45675.2       45656.8
    0.003992       49852.6       49913.1
    0.004491       53568.8       53719.3
     0.00499       56863.1         57111
    0.005489       59771.1       60120.4
    0.005988       62325.1       62776.6
    0.006487         64554       65105.3
    0.006986       66483.6       67129.1
    0.007485       68137.1       68867.8
    0.007984       69535.3         70339
    0.008483       70697.1       71558.3
    0.008982       71639.4       72539.8
    0.009481       72377.8       73296.6
     0.00998       72926.6       73841.4
    0.010479       73298.9       74186.5
    0.010978       73507.2       74344.5
    0.011477         73563       74328.3
    0.011976       73477.5       74151.6
    0.012475       73261.2       73828.4
    0.012974       72924.4       73373.3
    0.013473         72477       72801.2
    0.013972       71928.8         72127
    0.014471         71289       71365.6
     0.01497       70567.1       70531.2
    0.015469       69771.8       69637.4
    0.015968         68912       68696.9
    0.016467       67996.1       67721.1
    0.016966       67032.3       66720.4
    0.017465       66028.4       65703.8
    0.017964       64991.9       64679.1
    0.018463         63930       63652.9
    0.018962       62849.2       62630.7
    0.019461       61755.9       61616.8
     0.01996       60655.8       60614.9
    0.020459       59554.2       59627.6
    0.020958       58455.8       58657.1
    0.021457       57365.2       57704.7
    0.021956         56286       56771.5
    0.022455       55221.7       55858.1
    0.022954       54175.3       54964.9
    0.023453       53149.2       54091.9
    0.023952       52145.7       53238.9
    0.024451       51166.5       52405.7
     0.02495       50212.9         51592
    0.025449       49286.1       50797.2
    0.025948       48386.9         50021
    0.026447       47515.9       49262.6
    0.026946       46673.4       48521.7
    0.027445       45859.6       47797.6
    0.027944       45074.3       47089.8
    0.028443       44317.4       46397.7
    0.028942       43588.7       45720.9
    0.029441       42887.6       45058.7
     0.02994       42213.7       44410.8
    0.030439       41566.4       43776.6
    0.030938       40944.9       43155.6
    0.031437       40348.7       42547.5
    0.031936       39776.9       41951.8
    0.032435       39228.8       41368.1
    0.032934       38703.6       40796.1
    0.033433       38200.3       40235.3
    0.033932       37718.3       39685.6
    0.034431       37256.5       39146.4
     0.03493       36814.1       38617.6
    0.035429       36390.3       38098.8
    0.035928       35984.2       37589.7
    0.036427       35594.7       37090.2
    0.036926       35221.1       36599.8
    0.037425       34862.5       36118.5
    0.037924       34517.8       35645.9
    0.038423       34186.3       35181.8
    0.038922       33866.9         34726
    0.039421       33558.9       34278.4
     0.03992       33261.2       33838.6
    0.040419         32973       33406.6
    0.040918       32693.3       32982.1
    0.041417       32421.3         32565
    0.041916       32156.1         32155
    0.042415       31896.9       31752.1
    0.042914       31642.7       31356.1
    0.043413       31392.7       30966.7
    0.043912       31146.2       30583.9
    0.044411       30902.3       30207.6
     0.04491       30660.2       29837.5
    0.045409       30419.2       29473.6
    0.045908       30178.7       29115.7
    0.046407       29937.9       28763.6
    0.046906       29696.2       28417.4
    0.047405       29453.1       28076.8
    0.047904       29207.9       27741.7
    0.048403       28960.3         27412
    0.048902       28709.7       27087.6
    0.049401       28455.7       26768.5
      0.0499       28198.1       26454.4
    0.050399       27936.6       26145.3
    0.050898       27670.8       25841.1
    0.051397       27400.7       25541.7
    0.051896       27126.1         25247
    0.052395         26847       24956.9
    0.052894       26563.3       24671.3
    0.053393       26275.2       24390.2
    0.053892       25982.7       24113.4
    0.054391         25686       23840.8
     0.05489       25385.3       23572.5
    0.055389       25080.9       23308.2
    0.055888         24773         23048
    0.056387       24461.9       22791.7
    0.056886       24148.2       22539.3
    0.057385       23832.1       22290.6
    0.057884       23514.1       22045.7
    0.058383       23194.6       21804.5
    0.058882       22874.3       21566.8
    0.059381       22553.4       21332.7
     0.05988       22232.6         21102
    0.060379       21912.4       20874.8
    0.060878       21593.3       20650.8
    0.061377       21275.8       20430.2
    0.061876       20960.5       20212.7
    0.062375       20647.7       19998.4
    0.062874       20338.2       19787.2
    0.063373       20032.3       19579.1
    0.063872       19730.4       19373.9
    0.064371       19433.1       19171.7
     0.06487       19140.8       18972.3
    0.065369       18853.9       18775.8
    0.065868       18572.6         18582
    0.066367       18297.5         18391
    0.066866       18028.8       18202.7
    0.067365       17766.7         18017
    0.067864       17511.5       17833.9
    0.068363       17263.5       17653.4
    0.068862       17022.8       17475.4
    0.069361       16789.6       17299.8
     0.06986       16563.9       17126.6
    0.070359         16346       16955.8
    0.070858       16135.7       16787.3
    0.071357       15933.2       16621.2
    0.071856       15738.4       16457.3
    0.072355       15551.3       16295.6
    0.072854       15371.9       16136.1
    0.073353       15199.9       15978.7
    0.073852       15035.4       15823.5
    0.074351       14878.2       15670.3
     0.07485         14728       15519.1
    0.075349       14584.7         15370
    0.075848       14448.1       15222.8
    0.076347         14318       15077.6
    0.076846       14194.1       14934.2
    0.077345       14076.1       14792.8
    0.077844       13963.8       14653.1
    0.078343       13856.8       14515.3
    0.078842       13754.9       14379.3
    0.079341       13657.7       14245.1
     0.07984       13564.9       14112.5
    0.080339       13476.2       13981.7
    0.080838       13391.3       13852.5
    0.081337       13309.7         13725
    0.081836       13231.2       13599.1
    0.082335       13155.5       13474.8
    0.082834       13082.1         13352
    0.083333       13010.8       13230.8
    0.083832       12941.2       13111.2
    0.084331         12873         12993
     0.08483       12805.8       12876.2
    0.085329       12739.4         12761
    0.085828       12673.5       12647.1
    0.086327       12607.7       12534.7
    0.086826       12541.9       12423.6
    0.087325       12475.7       12313.9
    0.087824       12408.9       12205.5
    0.088323       12341.2       12098.5
    0.088822       12272.6       11992.8
    0.089321       12202.7       11888.3
     0.08982       12131.4       11785.1
    0.090319       12058.5       11683.1
    0.090818         11984       11582.3
    0.091317       11907.7       11482.8
    0.091816       11829.5       11384.4
    0.092315       11749.4       11287.2
    0.092814       11667.2       11191.2
    0.093313       11583.1       11096.3
    0.093812       11496.9       11002.5
    0.094311       11408.7       10909.7
     0.09481       11318.4       10818.1
    0.095309       11226.3       10727.6
    0.095808       11132.2       10638.1
    0.096307       11036.4       10549.6
    0.096806       10938.8       10462.1
    0.097305       10839.7       10375.7
    0.097804       10739.1       10290.2
    0.098303       10637.1       10205.7
    0.098802         10534       10122.2
    0.099301       10429.9       10039.6
      0.0998       10324.8       9958.01
    0.100299       10219.1       9877.29
    0.100798       10112.9       9797.49
    0.101297       10006.3       9718.57
    0.101796       9899.49       9640.54
    0.102295       9792.74       9563.38
    0.102794       9686.18       9487.07
    0.103293          9580       9411.62
    0.103792       9474.36       9336.99
    0.104291       9369.45       9263.19
     0.10479       9265.43       9190.19
    0.105289       9162.46          9118
    0.105788       9060.71       9046.59
    0.106287       8960.31       8975.96
    0.106786       8861.41        8906.1
    0.107285       8764.14       8836.99
    0.107784       8668.62       8768.63
    0.108283       8574.97          8701
    0.108782       8483.29        8634.1
    0.109281       8393.67       8567.91
     0.10978        8306.2       8502.43
    0.110279       8220.94       8437.65
    0.110778       8137.96       8373.55
    0.111277       8057.32       8310.13
    0.111776       7979.04       8247.38
    0.112275       7903.16       8185.28
    0.112774       7829.69       8123.84
    0.113273       7758.65       8063.04
    0.113772       7690.04       8002.87
    0.114271       7623.84       7943.33
     0.11477       7560.03        7884.4
    0.115269       7498.59       7826.08
    0.115768       7439.47       7768.36
    0.116267       7382.63       7711.24
    0.116766       7328.01        7654.7
    0.117265       7275.56       7598.74
    0.117764       7225.21       7543.34
    0.118263       7176.88       7488.51
    0.118762       7130.48       7434.24
    0.119261       7085.95       7380.51
     0.11976       7043.18       7327.32
    0.120259       7002.08       7274.67
    0.120758       6962.55       7222.55
    0.121257       6924.49       7170.94
    0.121756       6887.79       7119.85
    0.122255       6852.35       7069.27
    0.122754       6818.07       7019.19
    0.123253       6784.82        6969.6
    0.123752       6752.51        6920.5
    0.124251       6721.02       6871.88
     0.12475       6690.25       6823.74
    0.125249       6660.08       6776.07
    0.125748       6630.41       6728.86
    0.126247       6601.14       6682.12
    0.126746       6572.16       6635.82
    0.127245       6543.38       6589.97
    0.127744       6514.71       6544.57
    0.128243       6486.05        6499.6
    0.128742       6457.31       6455.06
    0.129241       6428.42       6410.95
     0.12974       6399.31       6367.26
    0.130239       6369.89       6323.98
    0.130738        6340.1       6281.12
    0.131237       6309.89       6238.66
    0.131736        6279.2        6196.6
    0.132235       6247.99       6154.93
    0.132734       6216.21       6113.66
    0.133233       6183.83       6072.77
    0.133732       6150.83       6032.27
    0.134231       6117.18       5992.14
     0.13473       6082.86       5952.38
    0.135229       6047.87          5913
    0.135728       6012.21       5873.98
    0.136227       5975.88       5835.31
    0.136726       5938.89          5797
    0.137225       5901.26       5759.05
    0.137724          5863       5721.44
    0.138223       5824.15       5684.17
    0.138722       5784.73       5647.24
    0.139221       5744.78       5610.65
     0.13972       5704.33       5574.39
    0.140219       5663.44       5538.46
    0.140718       5622.14       5502.85
    0.141217       5580.48       5467.56
    0.141716       5538.53       5432.58
    0.142215       5496.33       5397.92
    0.142714       5453.93       5363.57
    0.143213        5411.4       5329.52
    0.143712       5368.79       5295.78
    0.144211       5326.15       5262.33
     0.14471       5283.56       5229.18
    0.145209       5241.06       5196.32
    0.145708       5198.72       5163.75
    0.146207       5156.59       5131.47
    0.146706       5114.72       5099.47
    0.147205       5073.18       5067.74
    0.147704          5032       5036.29
    0.148203       4991.25       5005.12
    0.148702       4950.97       4974.21
    0.149201        4911.2       4943.58
      0.1497       4871.99        4913.2
    0.150199       4833.38       4883.09
    0.150698        4795.4       4853.23
    0.151197       4758.08       4823.63
    0.151696       4721.46       4794.28
    0.152195       4685.57       4765.19
    0.152694       4650.41       4736.34
    0.153193       4616.03       4707.73
    0.153692       4582.42       4679.36
    0.154191       4549.61       4651.24
     0.15469        4517.6       4623.35
    0.155189        4486.4       4595.69
    0.155688       4456.01       4568.27
    0.156187       4426.43       4541.08
    0.156686       4397.66       4514.11
    0.157185       4369.69       4487.36
    0.157684       4342.51       4460.84
    0.158183       4316.11       4434.54
    0.158682       4290.46       4408.45
    0.159181       4265.57       4382.58
     0.15968       4241.39       4356.92
    0.160179       4217.92       4331.47
    0.160678       4195.12       4306.23
    0.161177       4172.97        4281.2
    0.161676       4151.44       4256.36
    0.162175       4130.51       4231.74
    0.162674       4110.13       4207.31
    0.163173       4090.27       4183.07
    0.163672       4070.91       4159.04
    0.164171       4052.01       4135.19
     0.16467       4033.53       4111.54
    0.165169       4015.44       4088.08
    0.165668        3997.7        4064.8
    0.166167       3980.28       4041.71
    0.166666       3963.14        4018.8
    0.167165       3946.25       3996.08
    0.167664       3929.56       3973.53
    0.168163       3913.05       3951.17
    0.168662       3896.69       3928.98
    0.169161       3880.44       3906.96
     0.16966       3864.26       3885.12
    0.170159       3848.14       3863.45
    0.170658       3832.03       3841.94
    0.171157       3815.92       3820.61
    0.171656       3799.78       3799.44
    0.172155       3783.58       3778.43
    0.172654       3767.31       3757.59
    0.173153       3750.93       3736.91
    0.173652       3734.44       3716.39
    0.174151       3717.82       3696.02
     0.17465       3701.05       3675.82
    0.175149       3684.12       3655.76
    0.175648       3667.03       3635.86
    0.176147       3649.75       3616.12
    0.176646       3632.29       3596.52
    0.177145       3614.65       3577.07
    0.177644       3596.82       3557.77
    0.178143       3578.79       3538.61
    0.178642       3560.58        3519.6
    0.179141       3542.19       3500.73
     0.17964       3523.62       3482.01
    0.180139       3504.87       3463.42
    0.180638       3485.96       3444.97
    0.181137        3466.9       3426.67
    0.181636        3447.7       3408.49
    0.182135       3428.37       3390.45
    0.182634       3408.93       3372.55
    0.183133       3389.38       3354.78
    0.183632       3369.75       3337.14
    0.184131       3350.05       3319.63
     0.18463       3330.31       3302.25
    0.185129       3310.53       3284.99
    0.185628       3290.73       3267.87
    0.186127       3270.94       3250.86
    0.186626       3251.17       3233.98
    0.187125       3231.45       3217.23
    0.187624       3211.78        3200.6
    0.188123       3192.19       3184.08
    0.188622       3172.69       3167.69
    0.189121       3153.31       3151.41
     0.18962       3134.06       3135.25
    0.190119       3114.96       3119.21
    0.190618       3096.02       3103.28
    0.191117       3077.26       3087.47
    0.191616        3058.7       3071.77
    0.192115       3040.33       3056.18
    0.192614       3022.19        3040.7
    0.193113       3004.28       3025.34
    0.193612       2986.61       3010.08
    0.194111       2969.19       2994.93
     0.19461       2952.04       2979.88
    0.195109       2935.14       2964.95
    0.195608       2918.52       2950.11
    0.196107       2902.18       2935.38
    0.196606       2886.12       2920.76
    0.197105       2870.35       2906.24
    0.197604       2854.87       2891.81
    0.198103       2839.67       2877.49
    0.198602       2824.76       2863.27
    0.199101       2810.13       2849.14
      0.1996       2795.79       2835.12
    0.200099       2781.73       2821.19
    0.200598       2767.94       2807.36
    0.201097       2754.43       2793.62
    0.201596       2741.18       2779.97
    0.202095       2728.18       2766.42
    0.202594       2715.44       2752.96
    0.203093       2702.94        2739.6
    0.203592       2690.67       2726.32
    0.204091       2678.63       2713.14
     0.20459        2666.8       2700.04
    0.205089       2655.17       2687.04
    0.205588       2643.74       2674.12
    0.206087       2632.49       2661.29
    0.206586        2621.4       2648.54
    0.207085       2610.48       2635.88
    0.207584        2599.7       2623.31
    0.208083       2589.06       2610.82
    0.208582       2578.54       2598.41
    0.209081       2568.13       2586.08
     0.20958       2557.83       2573.84
    0.210079       2547.61       2561.68
    0.210578       2537.47        2549.6
    0.211077        2527.4        2537.6
    0.211576       2517.38       2525.68
    0.212075       2507.41       2513.83
    0.212574       2497.48       2502.07
    0.213073       2487.58       2490.38
    0.213572       2477.69       2478.77
    0.214071       2467.82       2467.23
     0.21457       2457.94       2455.77
    0.215069       2448.07       2444.39
    0.215568       2438.18       2433.08
    0.216067       2428.28       2421.84
    0.216566       2418.35       2410.67
    0.217065        2408.4       2399.58
    0.217564       2398.42       2388.56
    0.218063        2388.4       2377.61
    0.218562       2378.35       2366.73
    0.219061       2368.27       2355.92
     0.21956       2358.14       2345.18
    0.220059       2347.97       2334.51
    0.220558       2337.77        2323.9
    0.221057       2327.52       2313.37
    0.221556       2317.24        2302.9
    0.222055       2306.92        2292.5
    0.222554       2296.57       2282.16
    0.223053       2286.18       2271.89
    0.223552       2275.77       2261.68
    0.224051       2265.33       2251.54
     0.22455       2254.88       2241.46
    0.225049        2244.4       2231.45
    0.225548       2233.92       2221.49
    0.226047       2223.43        2211.6
    0.226546       2212.93       2201.77
    0.227045       2202.44       2192.01
    0.227544       2191.96        2182.3
    0.228043        2181.5       2172.66
    0.228542       2171.06       2163.07
    0.229041       2160.64       2153.54
     0.22954       2150.25       2144.08
    0.230039       2139.91       2134.67
    0.230538       2129.61       2125.32
    0.231037       2119.35       2116.02
    0.231536       2109.16       2106.78
    0.232035       2099.02        2097.6
    0.232534       2088.95       2088.48
    0.233033       2078.95       2079.41
    0.233532       2069.03        2070.4
    0.234031       2059.19       2061.44
     0.23453       2049.43       2052.54
    0.235029       2039.76       2043.69
    0.235528       2030.18       2034.89
    0.236027        2020.7       2026.15
    0.236526       2011.31       2017.46
    0.237025       2002.03       2008.82
    0.237524       1992.85       2000.23
    0.238023       1983.77        1991.7
    0.238522        1974.8       1983.21
    0.239021       1965.94       1974.78
     0.23952       1957.19        1966.4
    0.240019       1948.55       1958.06
    0.240518       1940.01       1949.78
    0.241017       1931.59       1941.55
    0.241516       1923.27       1933.36
    0.242015       1915.07       1925.23
    0.242514       1906.96       1917.14
    0.243013       1898.97        1909.1
    0.243512       1891.07        1901.1
    0.244011       1883.28       1893.16
     0.24451       1875.59       1885.26
    0.245009       1867.99        1877.4
    0.245508       1860.49       1869.59
    0.246007       1853.07       1861.83
    0.246506       1845.75       1854.12
    0.247005        1838.5       1846.44
    0.247504       1831.34       1838.82
    0.248003       1824.26       1831.23
    0.248502       1817.25       1823.69
    0.249001       1810.31        1816.2
      0.2495       1803.44       1808.74
    0.249999       1796.62       1801.33
    0.250498       1789.87       1793.97
    0.250997       1783.17       1786.64
    0.251496       1776.52       1779.36
    0.251995       1769.92       1772.12
    0.252494       1763.37       1764.92
    0.252993       1756.85       1757.76
    0.253492       1750.37       1750.64
    0.253991       1743.92       1743.57
     0.25449        1737.5       1736.53
    0.254989        1731.1       1729.53
    0.255488       1724.73       1722.57
    0.255987       1718.39       1715.65
    0.256486       1712.05       1708.77
    0.256985       1705.74       1701.93
    0.257484       1699.43       1695.13
    0.257983       1693.14       1688.37
    0.258482       1686.86       1681.64
    0.258981       1680.58       1674.95
     0.25948       1674.31        1668.3
    0.259979       1668.05       1661.69
    0.260478       1661.79       1655.11
    0.260977       1655.53       1648.57
    0.261476       1649.27       1642.06
    0.261975       1643.01       1635.59
    0.262474       1636.76       1629.16
    0.262973       1630.51       1622.76
    0.263472       1624.25        1616.4
    0.263971          1618       1610.08
     0.26447       1611.75       1603.78
    0.264969       1605.51       1597.53
    0.265468       1599.27        1591.3
    0.265967       1593.03       1585.11
    0.266466        1586.8       1578.96
    0.266965       1580.57       1572.83
    0.267464       1574.35       1566.75
    0.267963       1568.15       1560.69
    0.268462       1561.95       1554.67
    0.268961       1555.76       1548.68
     0.26946       1549.59       1542.72
    0.269959       1543.44       1536.79
    0.270458        1537.3        1530.9
    0.270957       1531.18       1525.04
    0.271456       1525.09       1519.21
    0.271955       1519.01       1513.41
    0.272454       1512.96       1507.64
    0.272953       1506.94        1501.9
    0.273452       1500.95        1496.2
    0.273951       1494.98       1490.52
     0.27445       1489.05       1484.88
    0.274949       1483.15       1479.26
    0.275448       1477.28       1473.67
    0.275947       1471.45       1468.12
    0.276446       1465.66       1462.59
    0.276945        1459.9       1457.09
    0.277444       1454.19       1451.62
    0.277943       1448.52       1446.18
    0.278442       1442.88       1440.77
    0.278941       1437.29       1435.39
     0.27944       1431.75       1430.03
    0.279939       1426.25       1424.71
    0.280438       1420.79       1419.41
    0.280937       1415.38       1414.14
    0.281436       1410.01       1408.89
    0.281935       1404.69       1403.68
    0.282434       1399.41       1398.49
    0.282933       1394.18       1393.33
    0.283432          1389       1388.19
    0.283931       1383.86       1383.08
     0.28443       1378.77          1378
    0.284929       1373.72       1372.94
    0.285428       1368.71       1367.91
    0.285927       1363.75       1362.91
    0.286426       1358.83       1357.93
    0.286925       1353.96       1352.98
    0.287424       1349.12       1348.05
    0.287923       1344.32       1343.15
    0.288422       1339.57       1338.27
    0.288921       1334.85       1333.42
     0.28942       1330.17       1328.59
    0.289919       1325.52       1323.79
    0.290418       1320.91       1319.01
    0.290917       1316.33       1314.25
    0.291416       1311.78       1309.52
    0.291915       1307.27       1304.81
    0.292414       1302.78       1300.13
    0.292913       1298.33       1295.47
    0.293412        1293.9       1290.83
    0.293911        1289.5       1286.22
     0.29441       1285.12       1281.63
    0.294909       1280.76       1277.07
    0.295408       1276.43       1272.52
    0.295907       1272.12          1268
    0.296406       1267.82        1263.5
    0.296905       1263.55       1259.03
    0.297404        1259.3       1254.57
    0.297903       1255.06       1250.14
    0.298402       1250.84       1245.73
    0.298901       1246.63       1241.34
      0.2994       1242.44       1236.98
    0.299899       1238.26       1232.63
    0.300398       1234.09       1228.31
    0.300897       1229.93       1224.01
    0.301396       1225.79       1219.73
    0.301895       1221.66       1215.47
    0.302394       1217.54       1211.23
    0.302893       1213.43       1207.01
    0.303392       1209.33       1202.81
    0.303891       1205.23       1198.63
     0.30439       1201.15       1194.48
    0.304889       1197.08       1190.34
    0.305388       1193.01       1186.22
    0.305887       1188.96       1182.13
    0.306386       1184.91       1178.05
    0.306885       1180.88       1173.99
    0.307384       1176.85       1169.96
    0.307883       1172.83       1165.94
    0.308382       1168.83       1161.94
    0.308881       1164.83       1157.96
     0.30938       1160.85          1154
    0.309879       1156.87       1150.06
    0.310378       1152.91       1146.14
    0.310877       1148.96       1142.24
    0.311376       1145.02       1138.35
    0.311875       1141.09       1134.49
    0.312374       1137.18       1130.64
    0.312873       1133.28       1126.81
    0.313372       1129.39          1123
    0.313871       1125.52        1119.2
     0.31437       1121.66       1115.43
    0.314869       1117.82       1111.67
    0.315368          1114       1107.93
    0.315867       1110.19       1104.21
    0.316366        1106.4       1100.51
    0.316865       1102.63       1096.82
    0.317364       1098.88       1093.15
    0.317863       1095.14        1089.5
    0.318362       1091.42       1085.86
    0.318861       1087.73       1082.25
     0.31936       1084.05       1078.65
    0.319859       1080.39       1075.06
    0.320358       1076.76       1071.49
    0.320857       1073.14       1067.94
    0.321356       1069.55       1064.41
    0.321855       1065.97       1060.89
    0.322354       1062.42       1057.39
    0.322853       1058.89        1053.9
    0.323352       1055.38       1050.43
    0.323851       1051.89       1046.98
     0.32435       1048.42       1043.54
    0.324849       1044.98       1040.12
    0.325348       1041.55       1036.72
    0.325847       1038.15       1033.33
    0.326346       1034.77       1029.95
    0.326845       1031.41       1026.59
    0.327344       1028.07       1023.25
    0.327843       1024.76       1019.92
    0.328342       1021.46       1016.61
    0.328841       1018.18       1013.31
     0.32934       1014.93       1010.03
    0.329839       1011.69       1006.76
    0.330338       1008.47        1003.5
    0.330837       1005.28       1000.27
    0.331336        1002.1       997.042
    0.331835       998.936       993.833
    0.332334       995.793       990.638
    0.332833       992.668       987.458
    0.333332        989.56       984.292
    0.333831       986.469        981.14
     0.33433       983.394       978.002
    0.334829       980.335       974.879
    0.335328       977.292       971.769
    0.335827       974.264       968.673
    0.336326        971.25       965.592
    0.336825       968.251       962.524
    0.337324       965.265       959.469
    0.337823       962.293       956.429
    0.338322       959.333       953.401
    0.338821       956.387       950.388
     0.33932       953.452       947.387
    0.339819        950.53         944.4
    0.340318       947.619       941.426
    0.340817       944.719       938.466
    0.341316        941.83       935.518
    0.341815       938.952       932.583
    0.342314       936.084       929.662
    0.342813       933.226       926.753
    0.343312       930.378       923.857
    0.343811        927.54       920.973
     0.34431       924.711       918.103
    0.344809       921.891       915.244
    0.345308       919.081       912.399
    0.345807       916.279       909.565
    0.346306       913.487       906.744
    0.346805       910.703       903.936
    0.347304       907.928       901.139
    0.347803       905.161       898.355
    0.348302       902.404       895.583
    0.348801       899.654       892.822
      0.3493       896.914       890.074
    0.349799       894.182       887.338
    0.350298       891.459       884.613
    0.350797       888.744         881.9
    0.351296       886.039       879.199
    0.351795       883.342       876.509
    0.352294       880.654       873.831
    0.352793       877.975       871.165
    0.353292       875.305        868.51
    0.353791       872.645       865.866
     0.35429       869.994       863.233
    0.354789       867.352       860.612
    0.355288        864.72       858.002
    0.355787       862.098       855.403
    0.356286       859.486       852.815
    0.356785       856.884       850.238
    0.357284       854.292       847.672
    0.357783       851.711       845.117
    0.358282       849.139       842.573
    0.358781       846.579       840.039
     0.35928       844.029       837.516
    0.359779        841.49       835.004
    0.360278       838.962       832.502
    0.360777       836.445       830.011
    0.361276       833.939        827.53
    0.361775       831.444        825.06
    0.362274       828.961         822.6
    0.362773       826.489        820.15
    0.363272       824.028       817.711
    0.363771       821.579       815.282
     0.36427       819.142       812.863
    0.364769       816.716       810.453
    0.365268       814.302       808.054
    0.365767       811.899       805.665
    0.366266       809.508       803.286
    0.366765       807.129       800.917
    0.367264       804.761       798.557
    0.367763       802.405       796.208
    0.368262        800.06       793.868
    0.368761       797.727       791.537
     0.36926       795.405       789.217
    0.369759       793.095       786.905
    0.370258       790.796       784.604
    0.370757       788.508       782.311
    0.371256       786.231       780.028
    0.371755       783.965       777.755
    0.372254       781.709       775.491
    0.372753       779.465       773.236
    0.373252       777.231        770.99
    0.373751       775.007       768.753
     0.37425       772.794       766.526
    0.374749       770.591       764.307
    0.375248       768.398       762.098
    0.375747       766.215       759.897
    0.376246       764.042       757.706
    0.376745       761.878       755.523
    0.377244       759.723       753.349
    0.377743       757.578       751.184
    0.378242       755.442       749.027
    0.378741       753.315        746.88
     0.37924       751.196       744.741
    0.379739       749.087        742.61
    0.380238       746.985       740.488
    0.380737       744.892       738.375
    0.381236       742.808        736.27
    0.381735       740.731       734.173
    0.382234       738.662       732.085
    0.382733       736.601       730.005
    0.383232       734.548       727.934
    0.383731       732.502        725.87
     0.38423       730.464       723.815
    0.384729       728.433       721.768
    0.385228       726.409        719.73
    0.385727       724.392       717.699
    0.386226       722.382       715.676
    0.386725        720.38       713.662
    0.387224       718.384       711.655
    0.387723       716.395       709.656
    0.388222       714.413       707.665
    0.388721       712.437       705.682
     0.38922       710.468       703.707
    0.389719       708.506       701.739
    0.390218        706.55       699.779
    0.390717       704.601       697.827
    0.391216       702.658       695.883
    0.391715       700.722       693.946
    0.392214       698.792       692.016
    0.392713       696.869       690.095
    0.393212       694.952        688.18
    0.393711       693.042       686.273
     0.39421       691.138       684.374
    0.394709       689.241       682.482
    0.395208        687.35       680.597
    0.395707       685.466        678.72
    0.396206       683.588       676.849
    0.396705       681.717       674.986
    0.397204       679.853       673.131
    0.397703       677.995       671.282
    0.398202       676.144       669.441
    0.398701       674.299       667.606
      0.3992       672.461       665.779
    0.399699        670.63       663.958
    0.400198       668.806       662.145
    0.400697       666.988       660.339
    0.401196       665.177       658.539
    0.401695       663.373       656.747
    0.402194       661.576       654.961
    0.402693       659.786       653.182
    0.403192       658.003        651.41
    0.403691       656.226       649.644
     0.40419       654.457       647.885
    0.404689       652.695       646.133
    0.405188       650.939       644.388
    0.405687       649.191       642.649
    0.406186       647.449       640.917
    0.406685       645.715       639.191
    0.407184       643.987       637.472
    0.407683       642.267       635.759
    0.408182       640.553       634.053
    0.408681       638.847       632.354
     0.40918       637.147        630.66
    0.409679       635.455       628.973
    0.410178       633.769       627.292
    0.410677        632.09       625.618
    0.411176       630.418        623.95
    0.411675       628.753       622.288
    0.412174       627.095       620.632
    0.412673       625.443       618.983
    0.413172       623.798       617.339
    0.413671        622.16       615.702
     0.41417       620.529       614.071
    0.414669       618.904       612.446
    0.415168       617.285       610.827
    0.415667       615.673       609.214
    0.416166       614.067       607.607
    0.416665       612.468       606.005
    0.417164       610.875        604.41
    0.417663       609.288       602.821
    0.418162       607.708       601.237
    0.418661       606.133        599.66
     0.41916       604.565       598.088
    0.419659       603.003       596.522
    0.420158       601.446       594.962
    0.420657       599.895       593.407
    0.421156       598.351       591.858
    0.421655       596.811       590.315
    0.422154       595.278       588.777
    0.422653        593.75       587.245
    0.423152       592.228       585.719
    0.423651       590.711       584.198
     0.42415       589.199       582.683
    0.424649       587.693       581.173
    0.425148       586.193       579.669
    0.425647       584.697        578.17
    0.426146       583.207       576.677
    0.426645       581.721       575.189
    0.427144       580.241       573.706
    0.427643       578.766       572.229
    0.428142       577.296       570.757
    0.428641       575.831        569.29
     0.42914       574.371       567.829
    0.429639       572.916       566.373
    0.430138       571.465       564.922
    0.430637        570.02       563.477
    0.431136       568.579       562.036
    0.431635       567.143       560.601
    0.432134       565.711       559.171
    0.432633       564.285       557.746
    0.433132       562.863       556.326
    0.433631       561.445       554.911
     0.43413       560.033       553.501
    0.434629       558.625       552.097
    0.435128       557.221       550.697
    0.435627       555.822       549.302
    0.436126       554.428       547.912
    0.436625       553.039       546.527
    0.437124       551.654       545.147
    0.437623       550.273       543.772
    0.438122       548.897       542.402
    0.438621       547.526       541.037
     0.43912       546.159       539.676
    0.439619       544.797        538.32
    0.440118       543.439       536.969
    0.440617       542.086       535.623
    0.441116       540.738       534.281
    0.441615       539.394       532.945
    0.442114       538.054       531.612
    0.442613       536.719       530.285
    0.443112       535.389       528.962
    0.443611       534.063       527.644
     0.44411       532.742        526.33
    0.444609       531.426       525.021
    0.445108       530.114       523.717
    0.445607       528.806       522.417
    0.446106       527.504       521.122
    0.446605       526.205       519.831
    0.447104       524.912       518.544
    0.447603       523.623       517.262
    0.448102       522.338       515.985
    0.448601       521.058       514.712
      0.4491       519.783       513.443
    0.449599       518.512       512.179
    0.450098       517.246       510.919
    0.450597       515.984       509.663
    0.451096       514.727       508.412
    0.451595       513.474       507.165
    0.452094       512.225       505.923
    0.452593       510.982       504.684
    0.453092       509.742        503.45
    0.453591       508.507        502.22
     0.45409       507.277       500.995
    0.454589       506.051       499.773
    0.455088       504.829       498.556
    0.455587       503.612       497.343
    0.456086       502.399       496.134
    0.456585        501.19       494.929
    0.457084       499.986       493.728
    0.457583       498.786       492.531
    0.458082        497.59       491.338
    0.458581       496.399        490.15
     0.45908       495.211       488.965
    0.459579       494.028       487.785
    0.460078       492.849       486.608
    0.460577       491.674       485.436
    0.461076       490.503       484.267
    0.461575       489.336       483.102
    0.462074       488.173       481.941
    0.462573       487.014       480.785
    0.463072       485.859       479.632
    0.463571       484.708       478.483
     0.46407       483.561       477.337
    0.464569       482.418       476.196
    0.465068       481.278       475.058
    0.465567       480.143       473.925
    0.466066       479.011       472.795
    0.466565       477.883       471.668
    0.467064       476.758       470.546
    0.467563       475.638       469.427
    0.468062        474.52       468.312
    0.468561       473.407       467.201
     0.46906       472.297       466.094
    0.469559       471.191        464.99
    0.470058       470.088        463.89
    0.470557       468.989       462.793
    0.471056       467.893         461.7
    0.471555       466.801       460.611
    0.472054       465.712       459.525
    0.472553       464.626       458.443
    0.473052       463.545       457.364
    0.473551       462.466       456.289
     0.47405       461.391       455.218
    0.474549       460.319        454.15
    0.475048        459.25       453.086
    0.475547       458.185       452.025
    0.476046       457.123       450.967
    0.476545       456.065       449.913
    0.477044        455.01       448.863
    0.477543       453.958       447.816
    0.478042       452.909       446.772
    0.478541       451.863       445.732
     0.47904       450.821       444.695
    0.479539       449.782       443.661
    0.480038       448.746       442.631
    0.480537       447.714       441.604
    0.481036       446.685       440.581
    0.481535       445.659       439.561
    0.482034       444.636       438.544
    0.482533       443.616       437.531
    0.483032       442.599        436.52
    0.483531       441.586       435.513
     0.48403       440.576        434.51
    0.484529       439.569       433.509
    0.485028       438.565       432.512
    0.485527       437.565       431.518
    0.486026       436.567       430.527
    0.486525       435.573        429.54
    0.487024       434.582       428.555
    0.487523       433.594       427.574
    0.488022       432.609       426.596
    0.488521       431.628       425.621
     0.48902       430.649       424.649
    0.489519       429.674        423.68
    0.490018       428.702       422.714
    0.490517       427.733       421.752
    0.491016       426.767       420.792
    0.491515       425.804       419.836
    0.492014       424.844       418.882
    0.492513       423.888       417.932
    0.493012       422.934       416.985
    0.493511       421.984        416.04
     0.49401       421.036       415.099
    0.494509       420.092        414.16
    0.495008       419.151       413.225
    0.495507       418.213       412.293
    0.496006       417.278       411.363
    0.496505       416.346       410.437
    0.497004       415.417       409.513
    0.497503       414.491       408.592
    0.498002       413.568       407.674
    0.498501       412.648       406.759
       0.499        411.73       405.847
